#                                                                                
# Lorentzian broadening with gamma= 0.050000  [eV]
# Im(epsilon) shifted by   1.0000   [eV]
# No intraband contributions added
#
# Energy [eV]  ref_ind_xx    extinct_xx
#
   0.013610  0.206681E+01  0.214622E-02
   0.040820  0.206682E+01  0.216093E-02
   0.068030  0.206686E+01  0.217580E-02
   0.095240  0.206690E+01  0.219082E-02
   0.122450  0.206697E+01  0.220602E-02
   0.149660  0.206705E+01  0.222137E-02
   0.176870  0.206714E+01  0.223690E-02
   0.204090  0.206725E+01  0.225261E-02
   0.231300  0.206738E+01  0.226850E-02
   0.258510  0.206752E+01  0.228456E-02
   0.285720  0.206768E+01  0.230080E-02
   0.312930  0.206786E+01  0.231723E-02
   0.340140  0.206805E+01  0.233385E-02
   0.367350  0.206825E+01  0.235067E-02
   0.394570  0.206848E+01  0.236769E-02
   0.421780  0.206872E+01  0.238491E-02
   0.448990  0.206897E+01  0.240233E-02
   0.476200  0.206924E+01  0.241996E-02
   0.503410  0.206953E+01  0.243781E-02
   0.530620  0.206984E+01  0.245587E-02
   0.557830  0.207016E+01  0.247416E-02
   0.585040  0.207049E+01  0.249268E-02
   0.612260  0.207085E+01  0.251143E-02
   0.639470  0.207122E+01  0.253042E-02
   0.666680  0.207160E+01  0.254965E-02
   0.693890  0.207201E+01  0.256912E-02
   0.721100  0.207243E+01  0.258885E-02
   0.748310  0.207287E+01  0.260884E-02
   0.775520  0.207332E+01  0.262909E-02
   0.802740  0.207379E+01  0.264961E-02
   0.829950  0.207428E+01  0.267041E-02
   0.857160  0.207479E+01  0.269148E-02
   0.884370  0.207531E+01  0.271285E-02
   0.911580  0.207585E+01  0.273451E-02
   0.938790  0.207641E+01  0.275647E-02
   0.966000  0.207699E+01  0.277874E-02
   0.993220  0.207758E+01  0.280134E-02
   1.020430  0.207819E+01  0.282425E-02
   1.047640  0.207882E+01  0.284749E-02
   1.074850  0.207947E+01  0.287108E-02
   1.102060  0.208014E+01  0.289501E-02
   1.129270  0.208083E+01  0.291929E-02
   1.156480  0.208153E+01  0.294394E-02
   1.183700  0.208225E+01  0.296898E-02
   1.210910  0.208300E+01  0.299439E-02
   1.238120  0.208376E+01  0.302020E-02
   1.265330  0.208454E+01  0.304641E-02
   1.292540  0.208534E+01  0.307304E-02
   1.319750  0.208616E+01  0.310009E-02
   1.346960  0.208700E+01  0.312759E-02
   1.374180  0.208786E+01  0.315554E-02
   1.401390  0.208874E+01  0.318395E-02
   1.428600  0.208964E+01  0.321284E-02
   1.455810  0.209056E+01  0.324221E-02
   1.483020  0.209150E+01  0.327209E-02
   1.510230  0.209247E+01  0.330249E-02
   1.537440  0.209345E+01  0.333342E-02
   1.564660  0.209446E+01  0.336492E-02
   1.591870  0.209549E+01  0.339698E-02
   1.619080  0.209654E+01  0.342961E-02
   1.646290  0.209761E+01  0.346286E-02
   1.673500  0.209871E+01  0.349672E-02
   1.700710  0.209983E+01  0.353123E-02
   1.727920  0.210098E+01  0.356641E-02
   1.755130  0.210214E+01  0.360227E-02
   1.782350  0.210334E+01  0.363886E-02
   1.809560  0.210455E+01  0.367616E-02
   1.836770  0.210579E+01  0.371423E-02
   1.863980  0.210706E+01  0.375309E-02
   1.891190  0.210835E+01  0.379276E-02
   1.918400  0.210967E+01  0.383327E-02
   1.945610  0.211102E+01  0.387466E-02
   1.972830  0.211239E+01  0.391698E-02
   2.000040  0.211379E+01  0.396023E-02
   2.027250  0.211522E+01  0.400445E-02
   2.054460  0.211668E+01  0.404970E-02
   2.081670  0.211816E+01  0.409602E-02
   2.108880  0.211968E+01  0.414343E-02
   2.136090  0.212122E+01  0.419200E-02
   2.163310  0.212280E+01  0.424179E-02
   2.190520  0.212441E+01  0.429282E-02
   2.217730  0.212605E+01  0.434516E-02
   2.244940  0.212772E+01  0.439886E-02
   2.272150  0.212943E+01  0.445400E-02
   2.299360  0.213117E+01  0.451064E-02
   2.326570  0.213294E+01  0.456885E-02
   2.353790  0.213476E+01  0.462873E-02
   2.381000  0.213661E+01  0.469032E-02
   2.408210  0.213849E+01  0.475373E-02
   2.435420  0.214042E+01  0.481906E-02
   2.462630  0.214238E+01  0.488641E-02
   2.489840  0.214439E+01  0.495589E-02
   2.517050  0.214644E+01  0.502761E-02
   2.544270  0.214853E+01  0.510175E-02
   2.571480  0.215067E+01  0.517838E-02
   2.598690  0.215285E+01  0.525768E-02
   2.625900  0.215509E+01  0.533983E-02
   2.653110  0.215737E+01  0.542499E-02
   2.680320  0.215970E+01  0.551337E-02
   2.707530  0.216208E+01  0.560518E-02
   2.734750  0.216452E+01  0.570071E-02
   2.761960  0.216701E+01  0.580014E-02
   2.789170  0.216957E+01  0.590379E-02
   2.816380  0.217218E+01  0.601199E-02
   2.843590  0.217486E+01  0.612509E-02
   2.870800  0.217760E+01  0.624349E-02
   2.898010  0.218042E+01  0.636763E-02
   2.925220  0.218330E+01  0.649801E-02
   2.952440  0.218627E+01  0.663525E-02
   2.979650  0.218931E+01  0.677987E-02
   3.006860  0.219243E+01  0.693264E-02
   3.034070  0.219565E+01  0.709438E-02
   3.061280  0.219896E+01  0.726604E-02
   3.088490  0.220237E+01  0.744871E-02
   3.115700  0.220588E+01  0.764363E-02
   3.142920  0.220951E+01  0.785237E-02
   3.170130  0.221325E+01  0.807649E-02
   3.197340  0.221713E+01  0.831813E-02
   3.224550  0.222114E+01  0.857972E-02
   3.251760  0.222530E+01  0.886422E-02
   3.278970  0.222963E+01  0.917522E-02
   3.306180  0.223413E+01  0.951716E-02
   3.333400  0.223883E+01  0.989571E-02
   3.360610  0.224375E+01  0.103176E-01
   3.387820  0.224890E+01  0.107920E-01
   3.415030  0.225433E+01  0.113307E-01
   3.442240  0.226006E+01  0.119497E-01
   3.469450  0.226615E+01  0.126709E-01
   3.496660  0.227264E+01  0.135255E-01
   3.523880  0.227961E+01  0.145598E-01
   3.551090  0.228715E+01  0.158444E-01
   3.578300  0.229538E+01  0.174958E-01
   3.605510  0.230445E+01  0.197168E-01
   3.632720  0.231452E+01  0.228785E-01
   3.659930  0.232558E+01  0.276308E-01
   3.687140  0.233710E+01  0.347897E-01
   3.714360  0.234796E+01  0.448126E-01
   3.741570  0.235679E+01  0.574380E-01
   3.768780  0.236236E+01  0.716147E-01
   3.795990  0.236420E+01  0.853783E-01
   3.823200  0.236372E+01  0.968150E-01
   3.850410  0.236301E+01  0.106147E+00
   3.877620  0.236261E+01  0.114633E+00
   3.904840  0.236211E+01  0.122827E+00
   3.932050  0.236121E+01  0.130627E+00
   3.959260  0.236001E+01  0.137797E+00
   3.986470  0.235881E+01  0.144403E+00
   4.013680  0.235763E+01  0.150742E+00
   4.040890  0.235629E+01  0.156886E+00
   4.068100  0.235466E+01  0.162710E+00
   4.095310  0.235280E+01  0.168045E+00
   4.122530  0.235086E+01  0.172775E+00
   4.149740  0.234909E+01  0.176911E+00
   4.176950  0.234770E+01  0.180639E+00
   4.204160  0.234669E+01  0.184245E+00
   4.231370  0.234589E+01  0.187873E+00
   4.258580  0.234515E+01  0.191495E+00
   4.285790  0.234446E+01  0.195067E+00
   4.313010  0.234381E+01  0.198577E+00
   4.340220  0.234320E+01  0.202022E+00
   4.367430  0.234262E+01  0.205418E+00
   4.394640  0.234206E+01  0.208787E+00
   4.421850  0.234147E+01  0.212128E+00
   4.449060  0.234080E+01  0.215398E+00
   4.476270  0.234007E+01  0.218546E+00
   4.503490  0.233927E+01  0.221516E+00
   4.530700  0.233850E+01  0.224257E+00
   4.557910  0.233782E+01  0.226795E+00
   4.585120  0.233729E+01  0.229189E+00
   4.612330  0.233689E+01  0.231480E+00
   4.639540  0.233664E+01  0.233698E+00
   4.666750  0.233653E+01  0.235883E+00
   4.693970  0.233654E+01  0.238065E+00
   4.721180  0.233663E+01  0.240246E+00
   4.748390  0.233682E+01  0.242431E+00
   4.775600  0.233709E+01  0.244644E+00
   4.802810  0.233742E+01  0.246910E+00
   4.830020  0.233776E+01  0.249229E+00
   4.857230  0.233806E+01  0.251575E+00
   4.884450  0.233832E+01  0.253906E+00
   4.911660  0.233855E+01  0.256183E+00
   4.938870  0.233876E+01  0.258390E+00
   4.966080  0.233897E+01  0.260519E+00
   4.993290  0.233916E+01  0.262543E+00
   5.020500  0.233939E+01  0.264418E+00
   5.047710  0.233973E+01  0.266134E+00
   5.074930  0.234025E+01  0.267762E+00
   5.102140  0.234093E+01  0.269372E+00
   5.129350  0.234175E+01  0.270989E+00
   5.156560  0.234270E+01  0.272633E+00
   5.183770  0.234377E+01  0.274330E+00
   5.210980  0.234492E+01  0.276099E+00
   5.238190  0.234611E+01  0.277935E+00
   5.265400  0.234733E+01  0.279823E+00
   5.292620  0.234856E+01  0.281752E+00
   5.319830  0.234980E+01  0.283705E+00
   5.347040  0.235104E+01  0.285662E+00
   5.374250  0.235230E+01  0.287607E+00
   5.401460  0.235357E+01  0.289539E+00
   5.428670  0.235487E+01  0.291456E+00
   5.455880  0.235620E+01  0.293356E+00
   5.483100  0.235755E+01  0.295238E+00
   5.510310  0.235892E+01  0.297089E+00
   5.537520  0.236031E+01  0.298879E+00
   5.564730  0.236174E+01  0.300571E+00
   5.591940  0.236331E+01  0.302162E+00
   5.619150  0.236505E+01  0.303715E+00
   5.646360  0.236696E+01  0.305310E+00
   5.673580  0.236899E+01  0.306986E+00
   5.700790  0.237108E+01  0.308733E+00
   5.728000  0.237323E+01  0.310529E+00
   5.755210  0.237544E+01  0.312356E+00
   5.782420  0.237770E+01  0.314215E+00
   5.809630  0.238002E+01  0.316102E+00
   5.836840  0.238240E+01  0.318017E+00
   5.864060  0.238485E+01  0.319965E+00
   5.891270  0.238734E+01  0.321942E+00
   5.918480  0.238989E+01  0.323942E+00
   5.945690  0.239250E+01  0.325962E+00
   5.972900  0.239516E+01  0.328008E+00
   6.000110  0.239788E+01  0.330071E+00
   6.027320  0.240067E+01  0.332149E+00
   6.054540  0.240352E+01  0.334242E+00
   6.081750  0.240643E+01  0.336348E+00
   6.108960  0.240941E+01  0.338454E+00
   6.136170  0.241247E+01  0.340554E+00
   6.163380  0.241564E+01  0.342651E+00
   6.190590  0.241893E+01  0.344753E+00
   6.217800  0.242236E+01  0.346885E+00
   6.245020  0.242593E+01  0.349085E+00
   6.272230  0.242960E+01  0.351360E+00
   6.299440  0.243337E+01  0.353699E+00
   6.326650  0.243723E+01  0.356101E+00
   6.353860  0.244120E+01  0.358569E+00
   6.381070  0.244526E+01  0.361103E+00
   6.408280  0.244941E+01  0.363696E+00
   6.435490  0.245367E+01  0.366345E+00
   6.462710  0.245804E+01  0.369058E+00
   6.489920  0.246253E+01  0.371839E+00
   6.517130  0.246714E+01  0.374698E+00
   6.544340  0.247187E+01  0.377651E+00
   6.571550  0.247670E+01  0.380702E+00
   6.598760  0.248164E+01  0.383830E+00
   6.625970  0.248669E+01  0.387031E+00
   6.653190  0.249187E+01  0.390319E+00
   6.680400  0.249717E+01  0.393698E+00
   6.707610  0.250261E+01  0.397165E+00
   6.734820  0.250818E+01  0.400720E+00
   6.762030  0.251390E+01  0.404360E+00
   6.789240  0.251978E+01  0.408073E+00
   6.816450  0.252587E+01  0.411859E+00
   6.843670  0.253223E+01  0.415768E+00
   6.870880  0.253886E+01  0.419870E+00
   6.898090  0.254573E+01  0.424237E+00
   6.925300  0.255276E+01  0.428907E+00
   6.952510  0.255989E+01  0.433839E+00
   6.979720  0.256711E+01  0.438960E+00
   7.006930  0.257446E+01  0.444228E+00
   7.034150  0.258201E+01  0.449638E+00
   7.061360  0.258981E+01  0.455205E+00
   7.088570  0.259792E+01  0.460970E+00
   7.115780  0.260641E+01  0.467003E+00
   7.142990  0.261530E+01  0.473408E+00
   7.170200  0.262457E+01  0.480313E+00
   7.197410  0.263411E+01  0.487814E+00
   7.224630  0.264382E+01  0.495905E+00
   7.251840  0.265366E+01  0.504491E+00
   7.279050  0.266371E+01  0.513523E+00
   7.306260  0.267412E+01  0.523062E+00
   7.333470  0.268499E+01  0.533278E+00
   7.360680  0.269635E+01  0.544440E+00
   7.387890  0.270803E+01  0.556795E+00
   7.415110  0.271986E+01  0.570460E+00
   7.442320  0.273176E+01  0.585488E+00
   7.469530  0.274380E+01  0.602128E+00
   7.496740  0.275587E+01  0.621026E+00
   7.523950  0.276731E+01  0.643000E+00
   7.551160  0.277668E+01  0.668749E+00
   7.578370  0.278145E+01  0.698080E+00
   7.605580  0.277907E+01  0.728428E+00
   7.632800  0.276930E+01  0.755548E+00
   7.660010  0.275491E+01  0.775698E+00
   7.687220  0.274060E+01  0.787885E+00
   7.714430  0.272981E+01  0.794448E+00
   7.741640  0.272367E+01  0.797844E+00
   7.768850  0.272227E+01  0.800599E+00
   7.796060  0.272431E+01  0.804055E+00
   7.823280  0.272917E+01  0.808245E+00
   7.850490  0.273714E+01  0.813347E+00
   7.877700  0.274892E+01  0.820434E+00
   7.904910  0.276435E+01  0.831963E+00
   7.932120  0.278060E+01  0.850185E+00
   7.959330  0.279403E+01  0.874051E+00
   7.986540  0.280351E+01  0.901134E+00
   8.013760  0.280878E+01  0.929858E+00
   8.040970  0.281026E+01  0.958111E+00
   8.068180  0.281004E+01  0.985051E+00
   8.095390  0.280939E+01  0.101178E+01
   8.122600  0.280822E+01  0.103923E+01
   8.149810  0.280649E+01  0.106807E+01
   8.177020  0.280357E+01  0.109964E+01
   8.204240  0.279711E+01  0.113486E+01
   8.231450  0.278351E+01  0.117229E+01
   8.258660  0.276121E+01  0.120670E+01
   8.285870  0.273425E+01  0.123360E+01
   8.313080  0.270725E+01  0.125391E+01
   8.340290  0.268164E+01  0.126965E+01
   8.367500  0.265816E+01  0.128207E+01
   8.394720  0.263721E+01  0.129274E+01
   8.421930  0.261806E+01  0.130310E+01
   8.449140  0.259946E+01  0.131334E+01
   8.476350  0.258094E+01  0.132283E+01
   8.503560  0.256280E+01  0.133104E+01
   8.530770  0.254575E+01  0.133798E+01
   8.557980  0.253027E+01  0.134443E+01
   8.585200  0.251594E+01  0.135127E+01
   8.612410  0.250194E+01  0.135862E+01
   8.639620  0.248790E+01  0.136602E+01
   8.666830  0.247393E+01  0.137313E+01
   8.694040  0.246030E+01  0.137989E+01
   8.721250  0.244724E+01  0.138649E+01
   8.748460  0.243471E+01  0.139334E+01
   8.775670  0.242237E+01  0.140060E+01
   8.802890  0.240993E+01  0.140821E+01
   8.830100  0.239725E+01  0.141595E+01
   8.857310  0.238437E+01  0.142367E+01
   8.884520  0.237140E+01  0.143134E+01
   8.911730  0.235835E+01  0.143906E+01
   8.938940  0.234513E+01  0.144681E+01
   8.966150  0.233178E+01  0.145452E+01
   8.993370  0.231841E+01  0.146235E+01
   9.020580  0.230486E+01  0.147053E+01
   9.047790  0.229078E+01  0.147903E+01
   9.075000  0.227600E+01  0.148766E+01
   9.102210  0.226044E+01  0.149626E+01
   9.129420  0.224408E+01  0.150459E+01
   9.156630  0.222702E+01  0.151244E+01
   9.183850  0.220949E+01  0.151982E+01
   9.211060  0.219151E+01  0.152689E+01
   9.238270  0.217289E+01  0.153367E+01
   9.265480  0.215350E+01  0.154000E+01
   9.292690  0.213336E+01  0.154563E+01
   9.319900  0.211269E+01  0.155046E+01
   9.347110  0.209153E+01  0.155466E+01
   9.374330  0.206961E+01  0.155816E+01
   9.401540  0.204692E+01  0.156055E+01
   9.428750  0.202383E+01  0.156149E+01
   9.455960  0.200090E+01  0.156114E+01
   9.483170  0.197818E+01  0.156009E+01
   9.510380  0.195515E+01  0.155842E+01
   9.537590  0.193171E+01  0.155567E+01
   9.564810  0.190838E+01  0.155162E+01
   9.592020  0.188564E+01  0.154692E+01
   9.619230  0.186283E+01  0.154252E+01
   9.646440  0.183844E+01  0.153813E+01
   9.673650  0.181197E+01  0.153211E+01
   9.700860  0.178449E+01  0.152334E+01
   9.728070  0.175694E+01  0.151197E+01
   9.755290  0.172969E+01  0.149822E+01
   9.782500  0.170317E+01  0.148247E+01
   9.809710  0.167713E+01  0.146564E+01
   9.836920  0.164985E+01  0.144796E+01
   9.864130  0.161955E+01  0.142720E+01
   9.891340  0.158725E+01  0.139930E+01
   9.918550  0.155780E+01  0.136230E+01
   9.945760  0.153560E+01  0.131882E+01
   9.972980  0.152169E+01  0.127274E+01
  10.000190  0.151508E+01  0.122690E+01
  10.027400  0.151403E+01  0.118268E+01
  10.054610  0.151709E+01  0.114024E+01
  10.081820  0.152349E+01  0.109924E+01
  10.109030  0.153299E+01  0.105940E+01
  10.136240  0.154556E+01  0.102065E+01
  10.163460  0.156123E+01  0.983032E+00
  10.190670  0.157995E+01  0.946717E+00
  10.217880  0.160163E+01  0.911810E+00
  10.245090  0.162617E+01  0.878335E+00
  10.272300  0.165352E+01  0.846079E+00
  10.299510  0.168429E+01  0.814474E+00
  10.326720  0.172044E+01  0.783860E+00
  10.353940  0.176357E+01  0.756965E+00
  10.381150  0.181287E+01  0.738035E+00
  10.408360  0.186317E+01  0.731088E+00
  10.435570  0.190531E+01  0.732449E+00
  10.462780  0.194093E+01  0.730785E+00
  10.489990  0.197911E+01  0.726374E+00
  10.517200  0.202068E+01  0.724016E+00
  10.544420  0.206433E+01  0.724715E+00
  10.571630  0.211031E+01  0.729337E+00
  10.598840  0.215636E+01  0.739816E+00
  10.626050  0.220041E+01  0.753222E+00
  10.653260  0.224457E+01  0.768688E+00
  10.680470  0.228844E+01  0.786590E+00
  10.707680  0.233320E+01  0.804750E+00
  10.734900  0.238295E+01  0.823965E+00
  10.762110  0.244028E+01  0.847647E+00
  10.789320  0.250756E+01  0.880940E+00
  10.816530  0.258514E+01  0.934343E+00
  10.843740  0.266078E+01  0.102283E+01
  10.870950  0.270575E+01  0.114419E+01
  10.898160  0.270726E+01  0.127047E+01
  10.925380  0.267601E+01  0.138134E+01
  10.952590  0.262759E+01  0.146908E+01
  10.979800  0.257367E+01  0.153802E+01
  11.007010  0.251738E+01  0.159157E+01
  11.034220  0.246290E+01  0.163160E+01
  11.061430  0.241305E+01  0.166255E+01
  11.088640  0.236722E+01  0.168824E+01
  11.115850  0.232457E+01  0.171022E+01
  11.143070  0.228424E+01  0.173082E+01
  11.170280  0.224263E+01  0.175056E+01
  11.197490  0.219835E+01  0.176594E+01
  11.224700  0.215355E+01  0.177524E+01
  11.251910  0.210923E+01  0.177821E+01
  11.279120  0.206698E+01  0.177350E+01
  11.306330  0.203034E+01  0.176092E+01
  11.333550  0.200270E+01  0.174298E+01
  11.360760  0.198567E+01  0.172364E+01
  11.387970  0.197878E+01  0.170718E+01
  11.415180  0.197967E+01  0.169698E+01
  11.442390  0.198498E+01  0.169484E+01
  11.469600  0.199140E+01  0.170059E+01
  11.496810  0.199727E+01  0.171285E+01
  11.524030  0.200235E+01  0.173122E+01
  11.551240  0.200613E+01  0.175666E+01
  11.578450  0.200676E+01  0.179126E+01
  11.605660  0.199834E+01  0.183732E+01
  11.632870  0.197040E+01  0.188904E+01
  11.660080  0.192371E+01  0.193120E+01
  11.687290  0.186961E+01  0.195859E+01
  11.714510  0.181517E+01  0.197428E+01
  11.741720  0.176304E+01  0.198192E+01
  11.768930  0.171396E+01  0.198499E+01
  11.796140  0.166616E+01  0.198620E+01
  11.823350  0.161681E+01  0.198556E+01
  11.850560  0.156430E+01  0.198039E+01
  11.877770  0.151064E+01  0.196761E+01
  11.904990  0.145907E+01  0.194752E+01
  11.932200  0.141054E+01  0.192181E+01
  11.959410  0.136507E+01  0.189047E+01
  11.986620  0.132440E+01  0.185354E+01
  12.013830  0.128974E+01  0.181293E+01
  12.041040  0.126042E+01  0.177017E+01
  12.068250  0.123589E+01  0.172511E+01
  12.095470  0.121710E+01  0.167748E+01
  12.122680  0.120559E+01  0.162862E+01
  12.149890  0.120126E+01  0.158110E+01
  12.177100  0.120239E+01  0.153600E+01
  12.204310  0.120853E+01  0.149337E+01
  12.231520  0.121908E+01  0.145439E+01
  12.258730  0.123237E+01  0.141947E+01
  12.285940  0.124708E+01  0.138773E+01
  12.313160  0.126336E+01  0.135795E+01
  12.340370  0.128238E+01  0.133023E+01
  12.367580  0.130408E+01  0.130664E+01
  12.394790  0.132557E+01  0.128768E+01
  12.422000  0.134551E+01  0.127093E+01
  12.449210  0.136488E+01  0.125486E+01
  12.476420  0.138413E+01  0.123900E+01
  12.503640  0.140453E+01  0.122178E+01
  12.530850  0.142958E+01  0.120403E+01
  12.558060  0.146015E+01  0.118997E+01
  12.585270  0.149326E+01  0.118221E+01
  12.612480  0.152593E+01  0.118022E+01
  12.639690  0.155706E+01  0.118219E+01
  12.666900  0.158712E+01  0.118693E+01
  12.694120  0.161705E+01  0.119470E+01
  12.721330  0.164640E+01  0.120690E+01
  12.748540  0.167327E+01  0.122415E+01
  12.775750  0.169505E+01  0.124555E+01
  12.802960  0.171015E+01  0.126779E+01
  12.830170  0.171973E+01  0.128728E+01
  12.857380  0.172715E+01  0.130171E+01
  12.884600  0.173633E+01  0.131210E+01
  12.911810  0.174882E+01  0.132086E+01
  12.939020  0.176508E+01  0.133011E+01
  12.966230  0.178472E+01  0.134207E+01
  12.993440  0.180600E+01  0.135861E+01
  13.020650  0.182587E+01  0.137968E+01
  13.047860  0.184286E+01  0.140231E+01
  13.075080  0.185907E+01  0.142359E+01
  13.102290  0.187919E+01  0.144334E+01
  13.129500  0.190817E+01  0.146658E+01
  13.156710  0.194522E+01  0.150436E+01
  13.183920  0.197554E+01  0.156402E+01
  13.211130  0.198733E+01  0.163209E+01
  13.238340  0.198824E+01  0.170207E+01
  13.265560  0.197440E+01  0.177756E+01
  13.292770  0.194018E+01  0.184826E+01
  13.319980  0.189329E+01  0.190473E+01
  13.347190  0.184246E+01  0.194719E+01
  13.374400  0.179209E+01  0.197859E+01
  13.401610  0.174464E+01  0.200210E+01
